Time [s], Acceleration [mg]
0,205.314
0.001,202.107
0.002,198.46
0.003,195.396
0.004,191.796
0.005,188.243
0.006,184.56
0.007,180.59
0.008,176.704
0.009,172.317
0.01,168.371
0.011,163.722
0.012,159.133
0.013,154.007
0.014,149.429
0.015,144.196
0.016,138.271
0.017,133.216
0.018,127.184
0.019,121.689
0.02,115.764
0.021,109.792
0.022,103.354
0.023,96.5476
0.024,90.4799
0.025,83.8518
0.026,77.8675
0.027,71.4541
0.028,65.2909
0.029,58.5795
0.03,52.2018
0.031,45.9433
0.032,39.2795
0.033,33.2475
0.034,26.8221
0.035,20.1583
0.036,13.8521
0.037,7.67708
0.038,1.46627
0.039,-5.55515
0.04,-12.6004
0.041,-19.7172
0.042,-26.6552
0.043,-33.7124
0.044,-40.7696
0.045,-47.9102
0.046,-54.7052
0.047,-61.6193
0.048,-68.6765
0.049,-75.6383
0.05,-82.3379
0.051,-88.6083
0.052,-94.8548
0.053,-101.28
0.054,-107.479
0.055,-113.487
0.056,-118.887
0.057,-124.443
0.058,-130.308
0.059,-135.648
0.06,-141.108
0.061,-146.425
0.062,-151.968
0.063,-157.082
0.064,-162.423
0.065,-167
0.066,-172.174
0.067,-177.109
0.068,-181.878
0.069,-187.266
0.07,-192.428
0.071,-196.385
0.072,-199.914
0.073,-203.8
0.074,-208.449
0.075,-212.383
0.076,-215.447
0.077,-218.26
0.078,-221.86
0.079,-225.437
0.08,-227.785
0.081,-230.265
0.082,-232.661
0.083,-235.033
0.084,-236.642
0.085,-237.834
0.086,-239.48
0.087,-241.637
0.088,-242.96
0.089,-243.08
0.09,-244.236
0.091,-245.178
0.092,-246.227
0.093,-247.169
0.094,-246.704
0.095,-247.467
0.096,-247.86
0.097,-247.431
0.098,-246.799
0.099,-245.512
0.1,-244.951
0.101,-244.248
0.102,-242.925
0.103,-240.886
0.104,-239.146
0.105,-237.012
0.106,-234.818
0.107,-232.327
0.108,-230.134
0.109,-227.284
0.11,-223.732
0.111,-220.823
0.112,-217.867
0.113,-214.994
0.114,-212.359
0.115,-208.616
0.116,-204.599
0.117,-200.57
0.118,-196.54
0.119,-192.404
0.12,-188.208
0.121,-183.725
0.122,-179.124
0.123,-174.034
0.124,-169.015
0.125,-163.96
0.126,-159.287
0.127,-154.34
0.128,-148.761
0.129,-142.67
0.13,-136.828
0.131,-131.297
0.132,-124.466
0.133,-118.637
0.134,-113.416
0.135,-106.132
0.136,-97.8828
0.137,-92.4826
0.138,-88.1314
0.139,-81.5153
0.14,-73.3256
0.141,-66.5665
0.142,-60.4153
0.143,-54.9316
0.144,-49.603
0.145,-43.571
0.146,-36.3469
0.147,-28.9679
0.148,-22.459
0.149,-15.986
0.15,-9.19104
0.151,-2.30074
0.152,4.45843
0.153,10.8957
0.154,17.488
0.155,24.2233
0.156,32.4011
0.157,39.7921
0.158,45.8717
0.159,51.6415
0.16,57.8523
0.161,65.0883
0.162,71.5017
0.163,77.5218
0.164,83.3154
0.165,88.954
0.166,94.4853
0.167,100.768
0.168,106.442
0.169,111.389
0.17,117.242
0.171,122.118
0.172,127.375
0.173,132.918
0.174,138.593
0.175,144.029
0.176,148.821
0.177,153.625
0.178,158.513
0.179,163.031
0.18,167.859
0.181,172.83
0.182,176.394
0.183,180.03
0.184,184.143
0.185,188.315
0.186,192.201
0.187,195.611
0.188,198.281
0.189,201.309
0.19,204.372
0.191,206.625
0.192,208.902
0.193,211.31
0.194,213.468
0.195,215.185
0.196,216.568
0.197,217.819
0.198,218.38
0.199,219.667
0.2,221.241
0.201,222.528
0.202,222.755
0.203,223.112
0.204,223.172
0.205,223.362
0.206,223.804
0.207,223.41
0.208,223.327
0.209,222.337
0.21,221.443
0.211,220.096
0.212,218.523
0.213,217.187
0.214,214.815
0.215,212.944
0.216,210.154
0.217,207.865
0.218,205.624
0.219,202.847
0.22,199.58
0.221,196.898
0.222,193.644
0.223,190.234
0.224,187.242
0.225,183.928
0.226,180.769
0.227,176.644
0.228,172.305
0.229,168.586
0.23,164.032
0.231,159.49
0.232,155.211
0.233,150.549
0.234,145.268
0.235,139.999
0.236,134.325
0.237,129.139
0.238,123.751
0.239,118.256
0.24,112.14
0.241,106.347
0.242,99.6232
0.243,93.8416
0.244,87.4877
0.245,81.1935
0.246,75.3164
0.247,69.0699
0.248,62.9306
0.249,56.3979
0.25,50.3659
0.251,43.869
0.252,37.7297
0.253,31.1017
0.254,24.1756
0.255,17.9768
0.256,11.2534
0.257,4.54187
0.258,-1.87159
0.259,-8.4281
0.26,-15.7118
0.261,-22.9836
0.262,-29.4209
0.263,-36.0966
0.264,-43.3445
0.265,-49.8295
0.266,-56.9582
0.267,-63.479
0.268,-69.9997
0.269,-76.6993
0.27,-83.2081
0.271,-89.4904
0.272,-95.9158
0.273,-101.65
0.274,-108.039
0.275,-114.346
0.276,-119.686
0.277,-125.039
0.278,-130.892
0.279,-136.173
0.28,-141.907
0.281,-147.629
0.282,-152.731
0.283,-158.167
0.284,-163.293
0.285,-168.24
0.286,-173.318
0.287,-178.432
0.288,-183.439
0.289,-187.933
0.29,-192.404
0.291,-196.052
0.292,-200.439
0.293,-204.825
0.294,-208.7
0.295,-212.121
0.296,-215.077
0.297,-217.927
0.298,-221.479
0.299,-224.364
0.3,-226.843
0.301,-229.12
0.302,-231.385
0.303,-233.4
0.304,-235.498
0.305,-237.358
0.306,-238.49
0.307,-239.825
0.308,-240.624
0.309,-241.792
0.31,-242.686
0.311,-243.318
0.312,-244.057
0.313,-244.26
0.314,-244.427
0.315,-244.427
0.316,-244.141
0.317,-244.224
0.318,-243.664
0.319,-243.151
0.32,-242.019
0.321,-240.409
0.322,-238.788
0.323,-237.501
0.324,-235.26
0.325,-232.995
0.326,-231.075
0.327,-229.12
0.328,-226.259
0.329,-223.1
0.33,-219.905
0.331,-217.056
0.332,-213.85
0.333,-210.285
0.334,-207.019
0.335,-202.704
0.336,-198.817
0.337,-195.217
0.338,-190.938
0.339,-186.849
0.34,-182.092
0.341,-177.336
0.342,-173.187
0.343,-168.908
0.344,-164.354
0.345,-158.978
0.346,-153.554
0.347,-148.368
0.348,-142.908
0.349,-136.781
0.35,-130.82
0.351,-125.194
0.352,-119.042
0.353,-112.855
0.354,-106.466
0.355,-100.41
0.356,-94.1515
0.357,-87.8811
0.358,-81.718
0.359,-75.1615
0.36,-69.4633
0.361,-62.9306
0.362,-56.5052
0.363,-50.354
0.364,-44.0955
0.365,-37.7178
0.366,-30.8275
0.367,-24.3545
0.368,-17.5595
0.369,-10.6215
0.37,-3.6478
0.371,2.82526
0.372,9.46522
0.373,15.6879
0.374,22.4471
0.375,29.3255
0.376,35.7747
0.377,41.9498
0.378,48.7566
0.379,55.0747
0.38,61.6312
0.381,68.4261
0.382,74.7085
0.383,80.7881
0.384,86.7129
0.385,92.2918
0.386,98.0735
0.387,104.153
0.388,109.78
0.389,115.156
0.39,120.223
0.391,125.527
0.392,130.558
0.393,135.279
0.394,140.5
0.395,145.602
0.396,150.371
0.397,154.483
0.398,159.216
0.399,163.889
0.4,168.836
0.401,172.651
0.402,176.573
0.403,180.817
0.404,184.298
0.405,187.957
0.406,191.307
0.407,194.776
0.408,197.816
0.409,200.2
0.41,201.702
0.411,203.598
0.412,206.208
0.413,208.08
0.414,209.177
0.415,210.416
0.416,211.31
0.417,212.812
0.418,214.279
0.419,215.554
0.42,216.854
0.421,218.093
0.422,218.88
0.423,218.666
0.424,218.952
0.425,219.679
0.426,219.691
0.427,219.131
0.428,218.272
0.429,217.307
0.43,215.888
0.431,214.35
0.432,212.562
0.433,211.12
0.434,208.879
0.435,206.28
0.436,203.562
0.437,201.178
0.438,198.829
0.439,196.505
0.44,193.203
0.441,190.115
0.442,186.861
0.443,183.654
0.444,180.03
0.445,176.096
0.446,172.234
0.447,168.335
0.448,164.163
0.449,160.074
0.45,155.449
0.451,151.575
0.452,146.627
0.453,141.907
0.454,136.864
0.455,131.822
0.456,126.731
0.457,121.26
0.458,115.693
0.459,110.483
0.46,104.821
0.461,98.4192
0.462,92.6137
0.463,86.5817
0.464,80.9789
0.465,75.1734
0.466,68.9387
0.467,62.7279
0.468,56.8748
0.469,50.962
0.47,44.6916
0.471,38.4688
0.472,32.5084
0.473,26.2857
0.474,20.1225
0.475,13.7806
0.476,7.49827
0.477,0.64373
0.478,-5.9247
0.479,-12.4097
0.48,-19.3834
0.481,-26.1426
0.482,-33.0567
0.483,-39.5656
0.484,-46.0029
0.485,-52.8693
0.486,-59.6643
0.487,-66.6618
0.488,-72.5508
0.489,-78.9762
0.49,-84.6386
0.491,-90.2295
0.492,-96.941
0.493,-102.687
0.494,-108.182
0.495,-114.155
0.496,-120.151
0.497,-126.183
0.498,-130.773
0.499,-136.316
0.5,-141.728
0.501,-147.045
0.502,-152.087
0.503,-156.903
0.504,-161.696
0.505,-166.19
0.506,-171.399
0.507,-175.953
0.508,-180.364
0.509,-184.667
0.51,-189.173
0.511,-193.226
0.512,-196.672
0.513,-200.594
0.514,-204.802
0.515,-208.247
0.516,-211.322
0.517,-213.79
0.518,-217.497
0.519,-219.584
0.52,-221.61
0.521,-224.221
0.522,-226.367
0.523,-228.155
0.524,-230.372
0.525,-231.576
0.526,-233.078
0.527,-234.234
0.528,-235.736
0.529,-236.726
0.53,-237.834
0.531,-238.502
0.532,-238.931
0.533,-239.205
0.534,-239.682
0.535,-239.599
0.536,-239.027
0.537,-238.359
0.538,-238.168
0.539,-236.583
0.54,-235.784
0.541,-234.592
0.542,-232.84
0.543,-231.004
0.544,-228.87
0.545,-227.261
0.546,-225.127
0.547,-222.254
0.548,-220.084
0.549,-217.462
0.55,-213.861
0.551,-210.536
0.552,-207.937
0.553,-205.159
0.554,-201.309
0.555,-197.411
0.556,-194.001
0.557,-190.067
0.558,-185.955
0.559,-181.425
0.56,-177.157
0.561,-173.676
0.562,-169.587
0.563,-164.509
0.564,-158.846
0.565,-153.494
0.566,-149.095
0.567,-144.076
0.568,-138.497
0.569,-132.62
0.57,-126.457
0.571,-121.248
0.572,-115.18
0.573,-108.91
0.574,-102.687
0.575,-96.8456
0.576,-90.6348
0.577,-84.4956
0.578,-78.6185
0.579,-72.6819
0.58,-66.1731
0.581,-59.9146
0.582,-53.6919
0.583,-47.7076
0.584,-41.5683
0.585,-35.1071
0.586,-28.6818
0.587,-22.161
0.588,-16.0337
0.589,-8.67844
0.59,-2.06232
0.591,4.27961
0.592,10.4547
0.593,17.5238
0.594,24.5452
0.595,30.8633
0.596,37.0264
0.597,43.2015
0.598,49.3169
0.599,56.0761
0.6,61.9173
0.601,68.2592
0.602,74.6727
0.603,80.502
0.604,85.8545
0.605,91.517
0.606,97.251
0.607,102.568
0.608,107.849
0.609,113.44
0.61,118.828
0.611,124.3
0.612,129.02
0.613,133.503
0.614,138.795
0.615,143.552
0.616,148.678
0.617,152.814
0.618,157.475
0.619,162.065
0.62,166.833
0.621,170.827
0.622,174.439
0.623,178.671
0.624,182.021
0.625,185.287
0.626,188.255
0.627,191.748
0.628,194.275
0.629,196.457
0.63,199.008
0.631,200.987
0.632,203.264
0.633,205.088
0.634,206.578
0.635,207.961
0.636,209.618
0.637,211.203
0.638,212.574
0.639,213.921
0.64,214.696
0.641,215.685
0.642,216.246
0.643,216.579
0.644,216.401
0.645,216.103
0.646,215.113
0.647,214.672
0.648,213.635
0.649,212.538
0.65,211.167
0.651,209.689
0.652,208.032
0.653,206.435
0.654,204.456
0.655,202.251
0.656,199.974
0.657,197.721
0.658,195.217
0.659,192.332
0.66,189.4
0.661,186.372
0.662,182.939
0.663,179.207
0.664,175.846
0.665,172.055
0.666,168.407
0.667,165.069
0.668,160.766
0.669,156.581
0.67,152.946
0.671,148.118
0.672,143.29
0.673,138.593
0.674,133.55
0.675,128.77
0.676,123.632
0.677,118.136
0.678,112.641
0.679,106.609
0.68,100.529
0.681,94.4376
0.682,88.7394
0.683,83.1843
0.684,77.1523
0.685,71.0607
0.686,65.1598
0.687,59.1397
0.688,53.1674
0.689,47.04
0.69,41.008
0.691,35.4409
0.692,28.9083
0.693,22.8524
0.694,16.5701
0.695,10.4308
0.696,3.12328
0.697,-3.42131
0.698,-9.69172
0.699,-16.5701
0.7,-23.3293
0.701,-29.7666
0.702,-36.9549
0.703,-43.2015
0.704,-49.4599
0.705,-55.8734
0.706,-62.6206
0.707,-68.6765
0.708,-74.9111
0.709,-80.7166
0.71,-86.5579
0.711,-92.7568
0.712,-98.5146
0.713,-104.511
0.714,-110.209
0.715,-115.538
0.716,-121.629
0.717,-127.029
0.718,-132.346
0.719,-137.699
0.72,-143.325
0.721,-147.939
0.722,-153.041
0.723,-158.203
0.724,-163.078
0.725,-167.489
0.726,-171.745
0.727,-176.096
0.728,-179.887
0.729,-184.882
0.73,-188.768
0.731,-192.75
0.732,-196.648
0.733,-200.403
0.734,-203.86
0.735,-207.365
0.736,-210.249
0.737,-213.122
0.738,-215.757
0.739,-218.248
0.74,-220.537
0.741,-222.611
0.742,-224.447
0.743,-226.283
0.744,-227.571
0.745,-229.061
0.746,-230.539
0.747,-231.54
0.748,-232.577
0.749,-233.448
0.75,-234.628
0.751,-235.009
0.752,-235.605
0.753,-235.987
0.754,-235.951
0.755,-235.808
0.756,-235.295
0.757,-234.628
0.758,-233.364
0.759,-231.814
0.76,-230.92
0.761,-229.371
0.762,-227.904
0.763,-226.092
0.764,-224.066
0.765,-221.515
0.766,-219.357
0.767,-217.223
0.768,-214.136
0.769,-211.537
0.77,-208.7
0.771,-205.612
0.772,-202.107
0.773,-198.817
0.774,-195.265
0.775,-191.951
0.776,-187.635
0.777,-183.916
0.778,-179.565
0.779,-175.715
0.78,-170.708
0.781,-166.237
0.782,-162.041
0.783,-157.547
0.784,-152.504
0.785,-147.08
0.786,-142.133
0.787,-137.21
0.788,-131.845
0.789,-126.004
0.79,-120.318
0.791,-114.906
0.792,-108.802
0.793,-102.961
0.794,-96.8218
0.795,-91.0282
0.796,-85.0916
0.797,-78.9285
0.798,-72.5985
0.799,-66.6976
0.8,-60.6656
0.801,-54.6098
0.802,-48.1963
0.803,-42.3908
0.804,-36.0251
0.805,-29.8619
0.806,-23.7942
0.807,-16.9992
0.808,-10.6096
0.809,-4.23193
0.81,1.93119
0.811,8.7738
0.812,15.2588
0.813,21.2789
0.814,27.9069
0.815,33.8793
0.816,40.2927
0.817,46.1102
0.818,52.3329
0.819,58.2695
0.82,64.3253
0.821,70.0116
0.822,75.9602
0.823,81.718
0.824,87.0466
0.825,92.7925
0.826,98.7887
0.827,104.022
0.828,108.862
0.829,114.214
0.83,119.364
0.831,124.371
0.832,128.949
0.833,133.765
0.834,138.462
0.835,143.635
0.836,148.296
0.837,152.361
0.838,156.498
0.839,160.79
0.84,164.759
0.841,168.335
0.842,171.971
0.843,175.548
0.844,178.683
0.845,182.056
0.846,185.299
0.847,187.707
0.848,190.401
0.849,192.595
0.85,194.836
0.851,196.803
0.852,199.008
0.853,200.713
0.854,202.572
0.855,204.206
0.856,204.992
0.857,206.089
0.858,206.959
0.859,208.008
0.86,208.616
0.861,208.962
0.862,208.962
0.863,209.057
0.864,209.451
0.865,209.725
0.866,209.332
0.867,208.461
0.868,207.925
0.869,207.007
0.87,205.553
0.871,203.872
0.872,202.31
0.873,200.331
0.874,198.174
0.875,195.682
0.876,193.357
0.877,190.735
0.878,188.327
0.879,185.776
0.88,183.01
0.881,180.209
0.882,176.537
0.883,173.02
0.884,169.718
0.885,166.321
0.886,162.447
0.887,158.62
0.888,154.412
0.889,149.894
0.89,145.578
0.891,140.965
0.892,136.471
0.893,131.655
0.894,126.684
0.895,121.915
0.896,116.587
0.897,111.818
0.898,106.418
0.899,100.923
0.9,95.3794
0.901,90.0388
0.902,84.4598
0.903,78.4755
0.904,72.8011
0.905,66.9241
0.906,60.9875
0.907,55.2416
0.908,48.9473
0.909,43.3207
0.91,37.2052
0.911,31.5189
0.912,25.475
0.913,19.2404
0.914,12.6839
0.915,6.42538
0.916,0.0596047
0.917,-5.97239
0.918,-12.4931
0.919,-18.8828
0.92,-25.4273
0.921,-31.9004
0.922,-38.3735
0.923,-45.1922
0.924,-51.0693
0.925,-57.4112
0.926,-63.5505
0.927,-69.4275
0.928,-75.5549
0.929,-80.7643
0.93,-86.6771
0.931,-92.6733
0.932,-98.7291
0.933,-104.01
0.934,-109.553
0.935,-115.073
0.936,-121.14
0.937,-126.553
0.938,-131.953
0.939,-137.496
0.94,-142.67
0.941,-147.414
0.942,-152.028
0.943,-156.724
0.944,-161.672
0.945,-165.808
0.946,-170.028
0.947,-174.212
0.948,-178.146
0.949,-182.39
0.95,-186.372
0.951,-190.151
0.952,-193.691
0.953,-197.172
0.954,-200.498
0.955,-203.514
0.956,-206.757
0.957,-209.856
0.958,-212.014
0.959,-214.636
0.96,-216.627
0.961,-218.511
0.962,-220.287
0.963,-222.111
0.964,-223.231
0.965,-225.055
0.966,-226.045
0.967,-227.225
0.968,-227.964
0.969,-229.538
0.97,-230.241
0.971,-230.527
0.972,-231.004
0.973,-231.35
0.974,-231.552
0.975,-231.099
0.976,-230.956
0.977,-229.609
0.978,-228.643
0.979,-227.487
0.98,-225.83
0.981,-224.304
0.982,-222.802
0.983,-220.788
0.984,-218.88
0.985,-216.949
0.986,-214.267
0.987,-211.966
0.988,-210.047
0.989,-207.21
0.99,-204.11
0.991,-201.273
0.992,-197.852
0.993,-194.669
0.994,-191.104
0.995,-187.278
0.996,-183.368
0.997,-179.088
0.998,-174.868
0.999,-170.517
1,-165.82
1.001,-161.576
1.002,-156.832
1.003,-152.135
1.004,-147.51
1.005,-142.503
1.006,-137.341
1.007,-132.537
1.008,-126.97
1.009,-121.713
1.01,-116.134
1.011,-110.412
1.012,-104.594
1.013,-99.0749
1.014,-93.317
1.015,-87.4162
1.016,-80.9193
1.017,-74.9946
1.018,-68.9983
1.019,-63.0379
1.02,-56.8867
1.021,-50.9739
1.022,-45.3711
1.023,-39.506
1.024,-33.2594
1.025,-26.5837
1.026,-20.5636
1.027,-13.9356
1.028,-7.689
1.029,-1.2517
1.03,5.34058
1.031,12.0044
1.032,18.5013
1.033,24.4141
1.034,30.7322
1.035,36.8953
1.036,42.7723
1.037,48.5182
1.038,54.574
1.039,60.5226
1.04,66.1731
1.041,71.9071
1.042,77.7602
1.043,82.922
1.044,88.1791
1.045,93.9012
1.046,99.6947
1.047,104.988
1.048,109.696
1.049,114.596
1.05,119.817
1.051,124.848
1.052,129.402
1.053,133.86
1.054,138.95
1.055,143.516
1.056,147.688
1.057,152.242
1.058,156.391
1.059,160.778
1.06,163.913
1.061,167.763
1.062,171.518
1.063,174.785
1.064,178.063
1.065,181.079
1.066,183.666
1.067,186.205
1.068,188.601
1.069,190.723
1.07,193.31
1.071,194.895
1.072,196.612
1.073,198.448
1.074,199.616
1.075,201.321
1.076,202.179
1.077,203.192
1.078,204.17
1.079,205.183
1.08,205.731
1.081,206.292
1.082,206.554
1.083,206.625
1.084,206.578
1.085,206.161
1.086,205.6
1.087,204.885
1.088,203.621
1.089,202.692
1.09,200.677
1.091,199.378
1.092,197.697
1.093,195.301
1.094,193.048
1.095,191.152
1.096,188.458
1.097,186.3
1.098,183.594
1.099,180.638
1.1,177.717
1.101,174.212
1.102,171.447
1.103,168.312
1.104,164.378
1.105,160.491
1.106,157.058
1.107,153.172
1.108,149.047
1.109,144.351
1.11,140.357
1.111,135.505
1.112,130.582
1.113,125.694
1.114,120.676
1.115,115.776
1.116,110.602
1.117,105.107
1.118,100.267
1.119,95.1052
1.12,89.2997
1.121,83.7445
1.122,78.4993
1.123,72.6819
1.124,66.9003
1.125,61.4762
1.126,56.0284
1.127,50.056
1.128,43.9167
1.129,38.3139
1.13,32.115
1.131,26.381
1.132,20.1106
1.133,13.4468
1.134,7.4625
1.135,1.35899
1.136,-4.673
1.137,-10.6812
1.138,-17.1542
1.139,-23.3531
1.14,-29.8142
1.141,-36.3827
1.142,-42.4147
1.143,-48.3751
1.144,-54.3475
1.145,-60.904
1.146,-66.5307
1.147,-72.7177
1.148,-78.4993
1.149,-84.1498
1.15,-89.8123
1.151,-95.8085
1.152,-101.34
1.153,-107.396
1.154,-112.462
1.155,-117.719
1.156,-123.62
1.157,-128.388
1.158,-133.276
1.159,-138.271
1.16,-143.492
1.161,-147.629
1.162,-152.433
1.163,-157.309
1.164,-161.445
1.165,-166.047
1.166,-169.814
1.167,-174.367
1.168,-178.134
1.169,-182.211
1.17,-185.728
1.171,-189.233
1.172,-192.618
1.173,-196.171
1.174,-198.936
1.175,-201.738
1.176,-204.229
1.177,-206.625
1.178,-208.569
1.179,-210.679
1.18,-212.777
1.181,-215.244
1.182,-217.176
1.183,-218.749
1.184,-220.013
1.185,-221.312
1.186,-223.148
1.187,-224.197
1.188,-224.721
1.189,-225.151
1.19,-226.259
1.191,-226.39
1.192,-225.985
1.193,-226.128
1.194,-225.711
1.195,-225.854
1.196,-224.853
1.197,-223.911
1.198,-222.862
1.199,-221.634
1.2,-220.442
1.201,-218.523
1.202,-216.806
1.203,-214.779
1.204,-212.777
1.205,-210.786
1.206,-208.33
1.207,-205.958
1.208,-203.502
1.209,-200.355
1.21,-197.709
1.211,-195.026
1.212,-191.379
1.213,-188.327
1.214,-184.655
1.215,-181.329
1.216,-177.646
1.217,-173.366
1.218,-169.194
1.219,-165.01
1.22,-160.623
1.221,-156.021
1.222,-151.646
1.223,-146.914
1.224,-141.978
1.225,-136.471
1.226,-131.941
1.227,-126.91
1.228,-121.439
1.229,-115.752
1.23,-110.447
1.231,-105.286
1.232,-99.0749
1.233,-93.4839
1.234,-88.203
1.235,-82.624
1.236,-76.1747
1.237,-70.262
1.238,-64.4207
1.239,-59.0324
1.24,-53.072
1.241,-47.4453
1.242,-41.5087
1.243,-34.9164
1.244,-29.3136
1.245,-23.3889
1.246,-17.1661
1.247,-11.5514
1.248,-5.00679
1.249,1.07288
1.25,7.236
1.251,13.1249
1.252,19.3596
1.253,25.6181
1.254,31.7931
1.255,37.5271
1.256,43.3922
1.257,49.4957
1.258,55.5873
1.259,61.2378
1.26,66.6976
1.261,72.8011
1.262,77.9748
1.263,82.922
1.264,88.4175
1.265,94.0561
1.266,99.1464
1.267,103.939
1.268,108.659
1.269,113.869
1.27,118.685
1.271,123.298
1.272,128.138
1.273,132.549
1.274,136.817
1.275,141.025
1.276,145.531
1.277,149.643
1.278,153.828
1.279,158
1.28,161.743
1.281,165.045
1.282,168.18
1.283,171.542
1.284,174.558
1.285,177.431
1.286,179.97
1.287,182.498
1.288,184.953
1.289,187.159
1.29,189.352
1.291,191.677
1.292,193.036
1.293,194.478
1.294,195.587
1.295,197.005
1.296,198.436
1.297,199.437
1.298,200.009
1.299,200.546
1.3,200.975
1.301,200.808
1.302,201.13
1.303,201.178
1.304,200.796
1.305,200.093
1.306,199.604
1.307,199.044
1.308,197.983
1.309,196.314
1.31,195.122
1.311,193.81
1.312,191.76
1.313,190.032
1.314,187.552
1.315,185.49
1.316,183.07
1.317,180.721
1.318,177.753
1.319,174.844
1.32,172.126
1.321,169.337
1.322,166.261
1.323,163.102
1.324,159.347
1.325,155.711
1.326,151.777
1.327,147.808
1.328,143.349
1.329,139.475
1.33,135.207
1.331,130.796
1.332,126.076
1.333,121.391
1.334,116.813
1.335,111.651
1.336,106.74
1.337,101.197
1.338,95.9516
1.339,90.9567
1.34,85.4373
1.341,80.4067
1.342,74.482
1.343,69.1056
1.344,63.3478
1.345,57.2324
1.346,51.9991
1.347,46.3128
1.348,40.5431
1.349,34.8687
1.35,29.1824
1.351,22.9001
1.352,16.6893
1.353,10.8123
1.354,4.43459
1.355,-1.56164
1.356,-7.33137
1.357,-13.2918
1.358,-19.6338
1.359,-25.8446
1.36,-32.2938
1.361,-38.1708
1.362,-44.7512
1.363,-50.6401
1.364,-56.3383
1.365,-62.2869
1.366,-68.14
1.367,-74.2197
1.368,-79.5722
1.369,-85.6161
1.37,-91.0759
1.371,-96.5953
1.372,-102.341
1.373,-107.718
1.374,-112.653
1.375,-118.423
1.376,-123.799
1.377,-128.436
1.378,-132.799
1.379,-137.866
1.38,-142.717
1.381,-147.438
1.382,-151.587
1.383,-156.069
1.384,-160.17
1.385,-164.664
1.386,-168.943
1.387,-173.438
1.388,-177.467
1.389,-181.079
1.39,-184.453
1.391,-187.874
1.392,-191.653
1.393,-194.669
1.394,-197.232
1.395,-199.842
1.396,-202.203
1.397,-204.492
